#Wavenumber	Intensity
650.4205	0.070180
652.2841	0.069948
654.1478	0.070097
656.0115	0.069709
657.8751	0.069930
659.7388	0.069712
661.6025	0.068922
663.4661	0.068854
665.3298	0.068780
667.1935	0.068048
669.0571	0.069406
670.9208	0.068816
672.7845	0.068197
674.6481	0.067809
676.5118	0.066821
678.3755	0.066500
680.2392	0.066878
682.1028	0.066389
683.9665	0.066410
685.8302	0.066155
687.6938	0.065507
689.5575	0.065182
691.4212	0.065138
693.2848	0.064757
695.1485	0.064797
697.0122	0.064613
698.8758	0.063987
700.7395	0.063219
702.6032	0.062700
704.4669	0.062085
706.3305	0.061487
708.1942	0.060930
710.0579	0.060572
711.9215	0.060361
713.7852	0.059983
715.6489	0.059388
717.5125	0.059020
719.3762	0.058788
721.2399	0.058579
723.1035	0.058263
724.9672	0.057886
726.8309	0.057201
728.6945	0.056573
730.5582	0.056333
732.4219	0.056075
734.2856	0.055603
736.1492	0.055209
738.0129	0.054828
739.8766	0.054542
741.7402	0.054364
743.6039	0.054002
745.4676	0.053511
747.3312	0.053177
749.1949	0.052527
751.0586	0.051807
752.9222	0.051285
754.7859	0.050882
756.6496	0.050498
758.5132	0.050292
760.3769	0.049947
762.2406	0.049324
764.1043	0.048877
765.9679	0.048651
767.8316	0.048232
769.6953	0.047932
771.5589	0.047469
773.4226	0.046984
775.2863	0.046771
777.1499	0.046507
779.0136	0.045923
780.8773	0.045451
782.7409	0.045250
784.6046	0.044962
786.4683	0.044395
788.3320	0.043949
790.1956	0.043632
792.0593	0.043267
793.9230	0.042824
795.7866	0.042312
797.6503	0.041748
799.5140	0.041359
801.3776	0.041066
803.2413	0.040750
805.1050	0.040482
806.9686	0.039994
808.8323	0.039528
810.6960	0.039442
812.5596	0.039266
814.4233	0.038927
816.2870	0.038536
818.1507	0.038090
820.0143	0.037631
821.8780	0.037222
823.7417	0.036850
825.6053	0.036622
827.4690	0.036546
829.3327	0.036358
831.1963	0.035931
833.0600	0.035540
834.9237	0.035106
836.7873	0.034647
838.6510	0.034456
840.5147	0.034316
842.3784	0.034002
844.2420	0.033625
846.1057	0.033279
847.9694	0.033088
849.8330	0.032877
851.6967	0.032617
853.5604	0.032509
855.4240	0.032379
857.2877	0.032128
859.1514	0.031945
861.0150	0.031785
862.8787	0.031487
864.7424	0.031227
866.6060	0.031068
868.4697	0.030812
870.3334	0.030599
872.1971	0.030413
874.0607	0.030192
875.9244	0.030139
877.7881	0.030127
879.6517	0.029911
881.5154	0.029678
883.3791	0.029462
885.2427	0.029163
887.1064	0.028794
888.9701	0.028446
890.8337	0.028241
892.6974	0.028082
894.5611	0.027848
896.4247	0.027569
898.2884	0.027302
900.1521	0.027068
902.0158	0.026841
903.8794	0.026597
905.7431	0.026367
907.6068	0.026221
909.4704	0.026159
911.3341	0.026120
913.1978	0.026033
915.0614	0.025953
916.9251	0.025917
918.7888	0.025919
920.6524	0.025891
922.5161	0.025808
924.3798	0.025768
926.2435	0.025776
928.1071	0.025750
929.9708	0.025636
931.8345	0.025463
933.6981	0.025317
935.5618	0.025301
937.4255	0.025299
939.2891	0.025254
941.1528	0.025242
943.0165	0.025224
944.8801	0.025253
946.7438	0.025301
948.6075	0.025368
950.4711	0.025432
952.3348	0.025386
954.1985	0.025366
956.0622	0.025462
957.9258	0.025555
959.7895	0.025641
961.6532	0.025844
963.5168	0.026171
965.3805	0.026553
967.2442	0.026905
969.1078	0.027125
970.9715	0.027277
972.8352	0.027513
974.6988	0.027796
976.5625	0.028069
978.4262	0.028423
980.2899	0.028786
982.1535	0.029057
984.0172	0.029320
985.8809	0.029613
987.7445	0.029940
989.6082	0.030257
991.4719	0.030461
993.3355	0.030611
995.1992	0.030803
997.0629	0.031057
998.9265	0.031379
1000.7902	0.031719
1002.6539	0.032053
1004.5175	0.032426
1006.3812	0.032858
1008.2449	0.033310
1010.1086	0.033825
1011.9722	0.034429
1013.8359	0.035091
1015.6996	0.035821
1017.5632	0.036611
1019.4269	0.037421
1021.2906	0.038188
1023.1542	0.038872
1025.0179	0.039532
1026.8816	0.040199
1028.7452	0.040813
1030.6089	0.041417
1032.4726	0.042038
1034.3362	0.042645
1036.1999	0.043253
1038.0636	0.043848
1039.9273	0.044393
1041.7909	0.044897
1043.6546	0.045316
1045.5183	0.045525
1047.3819	0.045452
1049.2456	0.045184
1051.1093	0.044846
1052.9729	0.044435
1054.8366	0.044111
1056.7003	0.043956
1058.5639	0.043871
1060.4276	0.043941
1062.2913	0.044216
1064.1550	0.044563
1066.0186	0.044915
1067.8823	0.045307
1069.7460	0.045738
1071.6096	0.046177
1073.4733	0.046565
1075.3370	0.046833
1077.2006	0.047061
1079.0643	0.047146
1080.9280	0.046989
1082.7916	0.046704
1084.6553	0.046278
1086.5190	0.045690
1088.3826	0.045033
1090.2463	0.044318
1092.1100	0.043606
1093.9737	0.043000
1095.8373	0.042437
1097.7010	0.041851
1099.5647	0.041296
1101.4283	0.040808
1103.2920	0.040416
1105.1557	0.040058
1107.0193	0.039711
1108.8830	0.039406
1110.7467	0.039065
1112.6103	0.038701
1114.4740	0.038363
1116.3377	0.037956
1118.2014	0.037444
1120.0650	0.036922
1121.9287	0.036465
1123.7924	0.036007
1125.6560	0.035537
1127.5197	0.035075
1129.3834	0.034616
1131.2470	0.034138
1133.1107	0.033656
1134.9744	0.033179
1136.8380	0.032705
1138.7017	0.032278
1140.5654	0.031935
1142.4290	0.031615
1144.2927	0.031274
1146.1564	0.030943
1148.0201	0.030655
1149.8837	0.030391
1151.7474	0.030149
1153.6111	0.029965
1155.4747	0.029797
1157.3384	0.029626
1159.2021	0.029443
1161.0657	0.029194
1162.9294	0.028958
1164.7931	0.028803
1166.6567	0.028628
1168.5204	0.028374
1170.3841	0.028137
1172.2477	0.027920
1174.1114	0.027691
1175.9751	0.027494
1177.8388	0.027352
1179.7024	0.027262
1181.5661	0.027245
1183.4298	0.027304
1185.2934	0.027439
1187.1571	0.027607
1189.0208	0.027785
1190.8844	0.027953
1192.7481	0.028097
1194.6118	0.028237
1196.4754	0.028427
1198.3391	0.028605
1200.2028	0.028771
1202.0665	0.028937
1203.9301	0.029072
1205.7938	0.029182
1207.6575	0.029281
1209.5211	0.029347
1211.3848	0.029387
1213.2485	0.029423
1215.1121	0.029518
1216.9758	0.029640
1218.8395	0.029727
1220.7031	0.029767
1222.5668	0.029818
1224.4305	0.029937
1226.2941	0.030048
1228.1578	0.030077
1230.0215	0.030139
1231.8852	0.030225
1233.7488	0.030291
1235.6125	0.030291
1237.4762	0.030284
1239.3398	0.030327
1241.2035	0.030345
1243.0672	0.030312
1244.9308	0.030249
1246.7945	0.030116
1248.6582	0.029971
1250.5218	0.029867
1252.3855	0.029724
1254.2492	0.029525
1256.1129	0.029332
1257.9765	0.029194
1259.8402	0.029067
1261.7039	0.028931
1263.5675	0.028829
1265.4312	0.028767
1267.2949	0.028676
1269.1585	0.028551
1271.0222	0.028533
1272.8859	0.028480
1274.7495	0.028416
1276.6132	0.028441
1278.4769	0.028477
1280.3405	0.028455
1282.2042	0.028420
1284.0679	0.028456
1285.9316	0.028540
1287.7952	0.028623
1289.6589	0.028689
1291.5226	0.028759
1293.3862	0.028879
1295.2499	0.029006
1297.1136	0.029169
1298.9772	0.029377
1300.8409	0.029550
1302.7046	0.029715
1304.5682	0.029937
1306.4319	0.030145
1308.2956	0.030328
1310.1592	0.030502
1312.0229	0.030693
1313.8866	0.030883
1315.7503	0.031020
1317.6139	0.031118
1319.4776	0.031171
1321.3413	0.031170
1323.2049	0.031120
1325.0686	0.031096
1326.9323	0.031138
1328.7959	0.031159
1330.6596	0.031166
1332.5233	0.031206
1334.3869	0.031246
1336.2506	0.031328
1338.1143	0.031680
1339.9780	0.031968
1341.8416	0.031906
1343.7053	0.031799
1345.5690	0.031909
1347.4326	0.032012
1349.2963	0.031996
1351.1600	0.031914
1353.0236	0.031884
1354.8873	0.031814
1356.7510	0.031644
1358.6146	0.031496
1360.4783	0.031676
1362.3420	0.032123
1364.2056	0.032234
1366.0693	0.032165
1367.9330	0.032393
1369.7967	0.032623
1371.6603	0.032833
1373.5240	0.033401
1375.3877	0.033937
1377.2513	0.034052
1379.1150	0.034273
1380.9787	0.034623
1382.8423	0.034808
1384.7060	0.035220
1386.5697	0.036014
1388.4333	0.036622
1390.2970	0.036613
1392.1607	0.036854
1394.0244	0.037679
1395.8880	0.038424
1397.7517	0.038774
1399.6154	0.039117
1401.4790	0.039182
1403.3427	0.039326
1405.2064	0.039806
1407.0700	0.039773
1408.9337	0.039590
1410.7974	0.039415
1412.6610	0.039021
1414.5247	0.038394
1416.3884	0.038095
1418.2520	0.038255
1420.1157	0.037858
1421.9794	0.036783
1423.8431	0.036108
1425.7067	0.035654
1427.5704	0.035134
1429.4341	0.035032
1431.2977	0.034810
1433.1614	0.034411
1435.0251	0.034872
1436.8887	0.035884
1438.7524	0.035783
1440.6161	0.035332
1442.4797	0.035394
1444.3434	0.035453
1446.2071	0.035768
1448.0707	0.036204
1449.9344	0.036173
1451.7981	0.035622
1453.6618	0.035398
1455.5254	0.035998
1457.3891	0.037150
1459.2528	0.036106
1461.1164	0.034685
1462.9801	0.034289
1464.8438	0.034484
1466.7074	0.033951
1468.5711	0.032938
1470.4348	0.032608
1472.2984	0.032955
1474.1621	0.032760
1476.0258	0.031925
1477.8895	0.031328
1479.7531	0.030916
1481.6168	0.030721
1483.4805	0.030483
1485.3441	0.030387
1487.2078	0.031005
1489.0715	0.032010
1490.9351	0.032203
1492.7988	0.031808
1494.6625	0.032116
1496.5261	0.033574
1498.3898	0.034494
1500.2535	0.034402
1502.1171	0.034167
1503.9808	0.034646
1505.8445	0.037231
1507.7082	0.040185
1509.5718	0.039739
1511.4355	0.039627
1513.2992	0.040355
1515.1628	0.041344
1517.0265	0.042447
1518.8902	0.043071
1520.7538	0.043966
1522.6175	0.045358
1524.4812	0.045447
1526.3448	0.046165
1528.2085	0.046788
1530.0722	0.047006
1531.9359	0.047912
1533.7995	0.049215
1535.6632	0.049218
1537.5269	0.049099
1539.3905	0.051414
1541.2542	0.053654
1543.1179	0.053531
1544.9815	0.053347
1546.8452	0.053037
1548.7089	0.052879
1550.5725	0.052999
1552.4362	0.052535
1554.2999	0.051869
1556.1635	0.051607
1558.0272	0.052506
1559.8909	0.053568
1561.7546	0.051439
1563.6182	0.050047
1565.4819	0.049554
1567.3456	0.049207
1569.2092	0.049169
1571.0729	0.048686
1572.9366	0.047552
1574.8002	0.047581
1576.6639	0.048547
1578.5276	0.048131
1580.3912	0.047559
1582.2549	0.047829
1584.1186	0.048166
1585.9822	0.048498
1587.8459	0.048919
1589.7096	0.049497
1591.5733	0.050228
1593.4369	0.051055
1595.3006	0.051917
1597.1643	0.052819
1599.0279	0.053691
1600.8916	0.054720
1602.7553	0.055932
1604.6189	0.057168
1606.4826	0.058596
1608.3463	0.060323
1610.2099	0.061956
1612.0736	0.063172
1613.9373	0.064461
1615.8010	0.066828
1617.6646	0.069786
1619.5283	0.070582
1621.3920	0.071494
1623.2556	0.073859
1625.1193	0.075693
1626.9830	0.076710
1628.8466	0.078006
1630.7103	0.078413
1632.5740	0.078422
1634.4376	0.079406
1636.3013	0.081170
1638.1650	0.080803
1640.0286	0.079699
1641.8923	0.079066
1643.7560	0.078420
1645.6197	0.078329
1647.4833	0.078070
1649.3470	0.076433
1651.2107	0.074913
1653.0743	0.075293
1654.9380	0.074385
1656.8017	0.071964
1658.6653	0.070039
1660.5290	0.068475
1662.3927	0.066835
1664.2563	0.064792
1666.1200	0.062588
1667.9837	0.060866
1669.8474	0.059150
1671.7110	0.056781
1673.5747	0.054466
1675.4384	0.052378
1677.3020	0.050112
1679.1657	0.047708
1681.0294	0.045738
1682.8930	0.043952
1684.7567	0.041765
1686.6204	0.039168
1688.4840	0.036918
1690.3477	0.034817
1692.2114	0.032699
1694.0750	0.030925
1695.9387	0.029192
1697.8024	0.027609
1699.6661	0.025863
1701.5297	0.024378
1703.3934	0.022781
1705.2571	0.021768
1707.1207	0.020781
1708.9844	0.019613
1710.8481	0.018673
1712.7117	0.018070
1714.5754	0.017884
1716.4391	0.017846
1718.3027	0.017180
1720.1664	0.016216
1722.0301	0.015435
1723.8937	0.015104
1725.7574	0.014636
1727.6211	0.014184
1729.4848	0.013990
1731.3484	0.014121
1733.2121	0.014136
1735.0758	0.013886
1736.9394	0.013046
1738.8031	0.012814
1740.6668	0.012953
1742.5304	0.012641
1744.3941	0.012408
1746.2578	0.012330
1748.1214	0.012334
1749.9851	0.012328
1751.8488	0.012089
1753.7125	0.011771
1755.5761	0.011538
1757.4398	0.011615
1759.3035	0.011320
1761.1671	0.011262
1763.0308	0.011298
1764.8945	0.010972
1766.7581	0.010822
1768.6218	0.011033
1770.4855	0.011133
1772.3491	0.011230
1774.2128	0.010895
1776.0765	0.010447
1777.9401	0.010394
1779.8038	0.010493
1781.6675	0.010577
1783.5312	0.010425
1785.3948	0.010392
1787.2585	0.010278
1789.1222	0.010183
1790.9858	0.010291
1792.8495	0.010352
1794.7132	0.009942
1796.5768	0.009778
1798.4405	0.009965
1800.3042	0.010035
1802.1678	0.009940
1804.0315	0.009637
1805.8952	0.009499
1807.7589	0.009635
1809.6225	0.009674
1811.4862	0.009464
1813.3499	0.009233
1815.2135	0.009081
1817.0772	0.009164
1818.9409	0.009255
1820.8045	0.009283
1822.6682	0.009309
1824.5319	0.009321
1826.3955	0.009363
1828.2592	0.009375
1830.1229	0.009575
1831.9865	0.009336
1833.8502	0.009040
1835.7139	0.009025
1837.5776	0.008999
1839.4412	0.009014
1841.3049	0.009114
1843.1686	0.009397
1845.0322	0.009545
1846.8959	0.009048
1848.7596	0.008867
1850.6232	0.009078
1852.4869	0.009146
1854.3506	0.009041
1856.2142	0.008941
1858.0779	0.009019
1859.9416	0.008986
1861.8052	0.008993
1863.6689	0.008939
1865.5326	0.008866
1867.3963	0.008996
1869.2599	0.009287
1871.1236	0.009091
1872.9873	0.008850
1874.8509	0.008910
1876.7146	0.008970
1878.5783	0.008747
1880.4419	0.008774
1882.3056	0.008776
1884.1693	0.008661
1886.0329	0.008579
1887.8966	0.008607
1889.7603	0.008591
1891.6240	0.008630
1893.4876	0.008760
1895.3513	0.008908
1897.2150	0.008868
1899.0786	0.008841
1900.9423	0.008706
1902.8060	0.008636
1904.6696	0.008569
1906.5333	0.008570
1908.3970	0.008744
1910.2606	0.008716
1912.1243	0.008564
1913.9880	0.008588
1915.8516	0.008834
1917.7153	0.008997
1919.5790	0.008882
1921.4427	0.008456
1923.3063	0.008361
1925.1700	0.008440
1927.0337	0.008425
1928.8973	0.008558
1930.7610	0.008565
1932.6247	0.008512
1934.4883	0.008383
1936.3520	0.008209
1938.2157	0.008227
1940.0793	0.008284
1941.9430	0.008330
1943.8067	0.008543
1945.6704	0.008843
1947.5340	0.008910
1949.3977	0.008298
1951.2614	0.008078
1953.1250	0.007998
1954.9887	0.007772
1956.8524	0.007883
1958.7160	0.008261
1960.5797	0.007978
1962.4434	0.007642
1964.3070	0.008024
1966.1707	0.008330
1968.0344	0.007843
1969.8980	0.007618
1971.7617	0.008094
1973.6254	0.008562
1975.4891	0.008953
1977.3527	0.010262
1979.2164	0.011273
1981.0801	0.010952
1982.9437	0.010097
1984.8074	0.009714
1986.6711	0.009194
1988.5347	0.009255
1990.3984	0.009599
1992.2621	0.009780
1994.1257	0.009930
1995.9894	0.009744
1997.8531	0.009321
1999.7167	0.008932
2001.5804	0.008790
2003.4441	0.008613
2005.3078	0.008074
2007.1714	0.008991
2009.0351	0.010268
2010.8988	0.010030
2012.7624	0.009313
2014.6261	0.009175
2016.4898	0.009089
2018.3534	0.009015
2020.2171	0.009157
2022.0808	0.009421
2023.9444	0.009346
2025.8081	0.009184
2027.6718	0.009454
2029.5355	0.010326
2031.3991	0.010795
2033.2628	0.010658
2035.1265	0.010775
2036.9901	0.011179
2038.8538	0.011185
2040.7175	0.011180
2042.5811	0.011216
2044.4448	0.011412
2046.3085	0.011779
2048.1721	0.012507
2050.0358	0.012794
2051.8995	0.012126
2053.7631	0.011532
2055.6268	0.011431
2057.4905	0.011503
2059.3542	0.011553
2061.2178	0.011708
2063.0815	0.012090
2064.9452	0.012055
2066.8088	0.011976
2068.6725	0.012163
2070.5362	0.012381
2072.3998	0.012376
2074.2635	0.012357
2076.1272	0.012136
2077.9908	0.012102
2079.8545	0.012125
2081.7182	0.012087
2083.5819	0.012206
2085.4455	0.012151
2087.3092	0.011897
2089.1729	0.011907
2091.0365	0.011776
2092.9002	0.011378
2094.7639	0.011234
2096.6275	0.011601
2098.4912	0.011921
2100.3549	0.011946
2102.2185	0.011800
2104.0822	0.011910
2105.9459	0.012101
2107.8095	0.012063
2109.6732	0.011895
2111.5369	0.011797
2113.4006	0.011565
2115.2642	0.011398
2117.1279	0.011219
2118.9916	0.011090
2120.8552	0.010882
2122.7189	0.010498
2124.5826	0.010211
2126.4462	0.010087
2128.3099	0.009528
2130.1736	0.008655
2132.0372	0.008684
2133.9009	0.009242
2135.7646	0.009399
2137.6282	0.009132
2139.4919	0.008784
2141.3556	0.009016
2143.2193	0.009205
2145.0829	0.009140
2146.9466	0.008990
2148.8103	0.008675
2150.6739	0.008363
2152.5376	0.008438
2154.4013	0.008293
2156.2649	0.008486
2158.1286	0.009557
2159.9923	0.011359
2161.8559	0.012216
2163.7196	0.012008
2165.5833	0.011617
2167.4470	0.011356
2169.3106	0.010947
2171.1743	0.010501
2173.0380	0.010403
2174.9016	0.010936
2176.7653	0.011118
2178.6290	0.010495
2180.4926	0.010353
2182.3563	0.010962
2184.2200	0.011098
2186.0836	0.011467
2187.9473	0.011699
2189.8110	0.011098
2191.6746	0.011071
2193.5383	0.011343
2195.4020	0.010855
2197.2657	0.010661
2199.1293	0.010836
2200.9930	0.010877
2202.8567	0.010672
2204.7203	0.010644
2206.5840	0.010554
2208.4477	0.010737
2210.3113	0.010915
2212.1750	0.010891
2214.0387	0.010713
2215.9023	0.010678
2217.7660	0.010682
2219.6297	0.010814
2221.4934	0.011031
2223.3570	0.010877
2225.2207	0.010688
2227.0844	0.010820
2228.9480	0.010773
2230.8117	0.010616
2232.6754	0.010472
2234.5390	0.010555
2236.4027	0.010685
2238.2664	0.011042
2240.1300	0.010847
2241.9937	0.010295
2243.8574	0.010311
2245.7210	0.010648
2247.5847	0.010929
2249.4484	0.010911
2251.3121	0.010637
2253.1757	0.010646
2255.0394	0.010832
2256.9031	0.010964
2258.7667	0.010867
2260.6304	0.010908
2262.4941	0.010716
2264.3577	0.010489
2266.2214	0.010660
2268.0851	0.010900
2269.9487	0.011011
2271.8124	0.011298
2273.6761	0.011459
2275.5397	0.011323
2277.4034	0.011209
2279.2671	0.011425
2281.1308	0.011410
2282.9944	0.011389
2284.8581	0.011549
2286.7218	0.011618
2288.5854	0.011658
2290.4491	0.011671
2292.3128	0.011462
2294.1764	0.011418
2296.0401	0.011389
2297.9038	0.011326
2299.7674	0.011409
2301.6311	0.011565
2303.4948	0.011588
2305.3585	0.011634
2307.2221	0.011786
2309.0858	0.012184
2310.9495	0.012490
2312.8131	0.012765
2314.6768	0.012823
2316.5405	0.013080
2318.4041	0.013658
2320.2678	0.014213
2322.1315	0.014775
2323.9951	0.014981
2325.8588	0.014344
2327.7225	0.013848
2329.5861	0.013874
2331.4498	0.014214
2333.3135	0.014408
2335.1772	0.014430
2337.0408	0.014358
2338.9045	0.014697
2340.7682	0.015207
2342.6318	0.015512
2344.4955	0.014876
2346.3592	0.013473
2348.2228	0.012303
2350.0865	0.012189
2351.9502	0.012869
2353.8138	0.014048
2355.6775	0.015291
2357.5412	0.016125
2359.4049	0.016104
2361.2685	0.015860
2363.1322	0.016066
2364.9959	0.015888
2366.8595	0.015249
2368.7232	0.014985
2370.5869	0.014275
2372.4505	0.013221
2374.3142	0.012286
2376.1779	0.011543
2378.0415	0.011051
2379.9052	0.010549
2381.7689	0.009869
2383.6325	0.009284
2385.4962	0.008977
2387.3599	0.008783
2389.2236	0.008650
2391.0872	0.008623
2392.9509	0.008504
2394.8146	0.008441
2396.6782	0.008523
2398.5419	0.008637
2400.4056	0.008554
2402.2692	0.008416
2404.1329	0.008312
2405.9966	0.008425
2407.8602	0.008731
2409.7239	0.008932
2411.5876	0.008784
2413.4512	0.008695
2415.3149	0.008717
2417.1786	0.008688
2419.0423	0.008642
2420.9059	0.008618
2422.7696	0.008561
2424.6333	0.008513
2426.4969	0.008582
2428.3606	0.008786
2430.2243	0.008812
2432.0879	0.008684
2433.9516	0.008728
2435.8153	0.008823
2437.6789	0.008835
2439.5426	0.008951
2441.4063	0.008961
2443.2700	0.008966
2445.1336	0.009054
2446.9973	0.009065
2448.8610	0.009044
2450.7246	0.009123
2452.5883	0.009136
2454.4520	0.009027
2456.3156	0.008971
2458.1793	0.009097
2460.0430	0.009013
2461.9066	0.008882
2463.7703	0.008883
2465.6340	0.008945
2467.4976	0.008927
2469.3613	0.008889
2471.2250	0.008805
2473.0887	0.008769
2474.9523	0.008787
2476.8160	0.008803
2478.6797	0.008656
2480.5433	0.008616
2482.4070	0.008770
2484.2707	0.008947
2486.1343	0.008907
2487.9980	0.008845
2489.8617	0.008897
2491.7253	0.008952
2493.5890	0.008928
2495.4527	0.008941
2497.3164	0.008929
2499.1800	0.008873
2501.0437	0.008812
2502.9074	0.008930
2504.7710	0.008917
2506.6347	0.008714
2508.4984	0.008757
2510.3620	0.008900
2512.2257	0.008847
2514.0894	0.008779
2515.9530	0.008897
2517.8167	0.008928
2519.6804	0.008790
2521.5440	0.008959
2523.4077	0.009052
2525.2714	0.008921
2527.1351	0.008851
2528.9987	0.008939
2530.8624	0.008975
2532.7261	0.009000
2534.5897	0.009021
2536.4534	0.009031
2538.3171	0.009000
2540.1807	0.009085
2542.0444	0.009209
2543.9081	0.009213
2545.7717	0.009092
2547.6354	0.009082
2549.4991	0.009059
2551.3627	0.009078
2553.2264	0.009130
2555.0901	0.009197
2556.9538	0.009243
2558.8174	0.009199
2560.6811	0.009117
2562.5448	0.009126
2564.4084	0.009180
2566.2721	0.009325
2568.1358	0.009388
2569.9994	0.009288
2571.8631	0.009292
2573.7268	0.009427
2575.5904	0.009456
2577.4541	0.009476
2579.3178	0.009492
2581.1815	0.009512
2583.0451	0.009432
2584.9088	0.009500
2586.7725	0.009651
2588.6361	0.009732
2590.4998	0.009668
2592.3635	0.009617
2594.2271	0.009676
2596.0908	0.009698
2597.9545	0.009713
2599.8181	0.009881
2601.6818	0.010004
2603.5455	0.010027
2605.4091	0.010025
2607.2728	0.010084
2609.1365	0.010076
2611.0002	0.010029
2612.8638	0.010102
2614.7275	0.010245
2616.5912	0.010231
2618.4548	0.010250
2620.3185	0.010248
2622.1822	0.010174
2624.0458	0.010199
2625.9095	0.010348
2627.7732	0.010460
2629.6368	0.010465
2631.5005	0.010465
2633.3642	0.010547
2635.2279	0.010508
2637.0915	0.010499
2638.9552	0.010535
2640.8189	0.010559
2642.6825	0.010572
2644.5462	0.010609
2646.4099	0.010687
2648.2735	0.010694
2650.1372	0.010634
2652.0009	0.010680
2653.8645	0.010679
2655.7282	0.010556
2657.5919	0.010444
2659.4555	0.010424
2661.3192	0.010349
2663.1829	0.010226
2665.0466	0.010138
2666.9102	0.010077
2668.7739	0.010049
2670.6376	0.010157
2672.5012	0.010200
2674.3649	0.010147
2676.2286	0.010128
2678.0922	0.010193
2679.9559	0.010287
2681.8196	0.010333
2683.6832	0.010333
2685.5469	0.010345
2687.4106	0.010288
2689.2742	0.010305
2691.1379	0.010368
2693.0016	0.010378
2694.8653	0.010360
2696.7289	0.010436
2698.5926	0.010555
2700.4563	0.010598
2702.3199	0.010603
2704.1836	0.010666
2706.0473	0.010637
2707.9109	0.010599
2709.7746	0.010670
2711.6383	0.010789
2713.5019	0.010874
2715.3656	0.010939
2717.2293	0.010940
2719.0930	0.010950
2720.9566	0.010966
2722.8203	0.011052
2724.6840	0.011181
2726.5476	0.011210
2728.4113	0.011163
2730.2750	0.011216
2732.1386	0.011276
2734.0023	0.011292
2735.8660	0.011301
2737.7296	0.011399
2739.5933	0.011496
2741.4570	0.011591
2743.3206	0.011671
2745.1843	0.011727
2747.0480	0.011763
2748.9117	0.011789
2750.7753	0.011780
2752.6390	0.011826
2754.5027	0.011937
2756.3663	0.012064
2758.2300	0.012050
2760.0937	0.012032
2761.9573	0.012125
2763.8210	0.012284
2765.6847	0.012359
2767.5483	0.012341
2769.4120	0.012395
2771.2757	0.012518
2773.1394	0.012572
2775.0030	0.012562
2776.8667	0.012497
2778.7304	0.012616
2780.5940	0.012789
2782.4577	0.012806
2784.3214	0.012786
2786.1850	0.012894
2788.0487	0.013018
2789.9124	0.013124
2791.7760	0.013124
2793.6397	0.013215
2795.5034	0.013401
2797.3670	0.013514
2799.2307	0.013588
2801.0944	0.013621
2802.9581	0.013661
2804.8217	0.013829
2806.6854	0.013930
2808.5491	0.013994
2810.4127	0.014047
2812.2764	0.014064
2814.1401	0.014144
2816.0037	0.014354
2817.8674	0.014528
2819.7311	0.014579
2821.5947	0.014605
2823.4584	0.014724
2825.3221	0.014838
2827.1857	0.014950
2829.0494	0.015003
2830.9131	0.015074
2832.7768	0.015198
2834.6404	0.015397
2836.5041	0.015588
2838.3678	0.015697
2840.2314	0.015745
2842.0951	0.015846
2843.9588	0.016021
2845.8224	0.016220
2847.6861	0.016373
2849.5498	0.016648
2851.4134	0.016930
2853.2771	0.017109
2855.1408	0.017254
2857.0045	0.017417
2858.8681	0.017509
2860.7318	0.017584
2862.5955	0.017799
2864.4591	0.018126
2866.3228	0.018305
2868.1865	0.018496
2870.0501	0.018743
2871.9138	0.018983
2873.7775	0.019199
2875.6411	0.019297
2877.5048	0.019299
2879.3685	0.019330
2881.2321	0.019436
2883.0958	0.019612
2884.9595	0.019738
2886.8232	0.019831
2888.6868	0.019890
2890.5505	0.019977
2892.4142	0.020069
2894.2778	0.020216
2896.1415	0.020300
2898.0052	0.020440
2899.8688	0.020650
2901.7325	0.020850
2903.5962	0.020943
2905.4598	0.021049
2907.3235	0.021272
2909.1872	0.021513
2911.0509	0.021685
2912.9145	0.021918
2914.7782	0.022172
2916.6419	0.022433
2918.5055	0.022714
2920.3692	0.023054
2922.2329	0.023361
2924.0965	0.023619
2925.9602	0.023864
2927.8239	0.024036
2929.6875	0.024115
2931.5512	0.024220
2933.4149	0.024436
2935.2785	0.024638
2937.1422	0.024632
2939.0059	0.024631
2940.8696	0.024804
2942.7332	0.024936
2944.5969	0.024899
2946.4606	0.024933
2948.3242	0.025088
2950.1879	0.025210
2952.0516	0.025282
2953.9152	0.025332
2955.7789	0.025338
2957.6426	0.025402
2959.5062	0.025544
2961.3699	0.025665
2963.2336	0.025637
2965.0972	0.025637
2966.9609	0.025661
2968.8246	0.025592
2970.6883	0.025408
2972.5519	0.025364
2974.4156	0.025401
2976.2793	0.025302
2978.1429	0.025180
2980.0066	0.025124
2981.8703	0.025078
2983.7339	0.025119
2985.5976	0.025125
2987.4613	0.025050
2989.3249	0.025002
2991.1886	0.025034
2993.0523	0.025014
2994.9160	0.025046
2996.7796	0.025208
2998.6433	0.025429
3000.5070	0.025546
3002.3706	0.025582
3004.2343	0.025701
3006.0980	0.025960
3007.9616	0.026181
3009.8253	0.026418
3011.6890	0.026652
3013.5526	0.026818
3015.4163	0.026961
3017.2800	0.027063
3019.1436	0.027343
3021.0073	0.027640
3022.8710	0.027825
3024.7347	0.028128
3026.5983	0.028426
3028.4620	0.028803
3030.3257	0.029089
3032.1893	0.029195
3034.0530	0.029362
3035.9167	0.029689
3037.7803	0.030068
3039.6440	0.030472
3041.5077	0.030830
3043.3713	0.031119
3045.2350	0.031454
3047.0987	0.031832
3048.9624	0.032047
3050.8260	0.032260
3052.6897	0.032536
3054.5534	0.032828
3056.4170	0.033124
3058.2807	0.033386
3060.1444	0.033765
3062.0080	0.034173
3063.8717	0.034496
3065.7354	0.034806
3067.5990	0.035005
3069.4627	0.035207
3071.3264	0.035484
3073.1900	0.035765
3075.0537	0.036173
3076.9174	0.036537
3078.7811	0.036815
3080.6447	0.037010
3082.5084	0.037171
3084.3721	0.037452
3086.2357	0.037838
3088.0994	0.038259
3089.9631	0.038519
3091.8267	0.038635
3093.6904	0.038884
3095.5541	0.039204
3097.4177	0.039591
3099.2814	0.039912
3101.1451	0.040210
3103.0087	0.040537
3104.8724	0.040865
3106.7361	0.041139
3108.5998	0.041395
3110.4634	0.041735
3112.3271	0.042116
3114.1908	0.042605
3116.0544	0.043179
3117.9181	0.043479
3119.7818	0.043791
3121.6454	0.044181
3123.5091	0.044547
3125.3728	0.044971
3127.2364	0.045401
3129.1001	0.045919
3130.9638	0.046469
3132.8275	0.046870
3134.6911	0.047356
3136.5548	0.047825
3138.4185	0.048285
3140.2821	0.048873
3142.1458	0.049417
3144.0095	0.049724
3145.8731	0.050187
3147.7368	0.050818
3149.6005	0.051386
3151.4641	0.051880
3153.3278	0.052387
3155.1915	0.052963
3157.0551	0.053702
3158.9188	0.054194
3160.7825	0.054603
3162.6462	0.055201
3164.5098	0.055762
3166.3735	0.056210
3168.2372	0.056915
3170.1008	0.057538
3171.9645	0.058175
3173.8282	0.058791
3175.6918	0.059412
3177.5555	0.059931
3179.4192	0.060505
3181.2828	0.060899
3183.1465	0.061404
3185.0102	0.062168
3186.8739	0.062813
3188.7375	0.063076
3190.6012	0.063569
3192.4649	0.064260
3194.3285	0.064837
3196.1922	0.065288
3198.0559	0.065902
3199.9195	0.066497
3201.7832	0.066919
3203.6469	0.067257
3205.5105	0.067791
3207.3742	0.068232
3209.2379	0.068774
3211.1015	0.069287
3212.9652	0.069783
3214.8289	0.070147
3216.6926	0.070563
3218.5562	0.071009
3220.4199	0.071637
3222.2836	0.071961
3224.1472	0.072340
3226.0109	0.072818
3227.8746	0.073204
3229.7382	0.073439
3231.6019	0.073893
3233.4656	0.074236
3235.3292	0.074621
3237.1929	0.075019
3239.0566	0.075456
3240.9202	0.075768
3242.7839	0.076213
3244.6476	0.076521
3246.5113	0.076822
3248.3749	0.077165
3250.2386	0.077727
3252.1023	0.078004
3253.9659	0.078265
3255.8296	0.078574
3257.6933	0.079071
3259.5569	0.079289
3261.4206	0.079642
3263.2843	0.079932
3265.1479	0.080235
3267.0116	0.080344
3268.8753	0.080647
3270.7390	0.080891
3272.6026	0.081303
3274.4663	0.081449
3276.3300	0.081921
3278.1936	0.082317
3280.0573	0.082192
3281.9210	0.082008
3283.7846	0.082529
3285.6483	0.082936
3287.5120	0.083295
3289.3756	0.083304
3291.2393	0.083296
3293.1030	0.083343
3294.9666	0.083680
3296.8303	0.083855
3298.6940	0.084022
3300.5577	0.084009
3302.4213	0.084112
3304.2850	0.084220
3306.1487	0.084422
3308.0123	0.084442
3309.8760	0.084849
3311.7397	0.085105
3313.6033	0.085100
3315.4670	0.085029
3317.3307	0.085304
3319.1943	0.085396
3321.0580	0.085621
3322.9217	0.085632
3324.7854	0.085677
3326.6490	0.085735
3328.5127	0.086114
3330.3764	0.086304
3332.2400	0.086534
3334.1037	0.086403
3335.9674	0.086523
3337.8310	0.086783
3339.6947	0.087100
3341.5584	0.087435
3343.4220	0.087640
3345.2857	0.087488
3347.1494	0.087564
3349.0130	0.087592
3350.8767	0.087876
3352.7404	0.087836
3354.6041	0.088110
3356.4677	0.088091
3358.3314	0.088043
3360.1951	0.087916
3362.0587	0.087976
3363.9224	0.087898
3365.7861	0.088082
3367.6497	0.088032
3369.5134	0.088285
3371.3771	0.088162
3373.2407	0.088064
3375.1044	0.087966
3376.9681	0.087989
3378.8317	0.087855
3380.6954	0.088032
3382.5591	0.087740
3384.4228	0.087460
3386.2864	0.087243
3388.1501	0.087273
3390.0138	0.087016
3391.8774	0.086955
3393.7411	0.086767
3395.6048	0.086844
3397.4684	0.086458
3399.3321	0.086205
3401.1958	0.085904
3403.0594	0.085768
3404.9231	0.085520
3406.7868	0.085429
3408.6505	0.085105
3410.5141	0.085081
3412.3778	0.084869
3414.2415	0.084662
3416.1051	0.084091
3417.9688	0.083807
3419.8325	0.083514
3421.6961	0.083260
3423.5598	0.082767
3425.4235	0.082219
3427.2871	0.081480
3429.1508	0.081410
3431.0145	0.081244
3432.8781	0.081026
3434.7418	0.080323
3436.6055	0.079974
3438.4692	0.079727
3440.3328	0.079348
3442.1965	0.078756
3444.0602	0.078655
3445.9238	0.078173
3447.7875	0.077659
3449.6512	0.077049
3451.5148	0.076612
3453.3785	0.075957
3455.2422	0.075566
3457.1058	0.074670
3458.9695	0.074087
3460.8332	0.073701
3462.6969	0.073357
3464.5605	0.072961
3466.4242	0.072510
3468.2879	0.071701
3470.1515	0.071347
3472.0152	0.070744
3473.8789	0.070266
3475.7425	0.069507
3477.6062	0.068943
3479.4699	0.068138
3481.3335	0.067675
3483.1972	0.067009
3485.0609	0.066295
3486.9245	0.065904
3488.7882	0.065811
3490.6519	0.065092
3492.5156	0.064473
3494.3792	0.063619
3496.2429	0.062906
3498.1066	0.062477
3499.9702	0.061967
3501.8339	0.061128
3503.6976	0.060821
3505.5612	0.060099
3507.4249	0.059348
3509.2886	0.058506
3511.1522	0.057890
3513.0159	0.057596
3514.8796	0.057157
3516.7432	0.056445
3518.6069	0.055822
3520.4706	0.054915
3522.3343	0.054310
3524.1979	0.053807
3526.0616	0.053411
3527.9253	0.052510
3529.7889	0.051693
3531.6526	0.051019
3533.5163	0.050667
3535.3799	0.049836
3537.2436	0.049047
3539.1073	0.048398
3540.9709	0.047848
3542.8346	0.047234
3544.6983	0.046691
3546.5620	0.046010
3548.4256	0.045676
3550.2893	0.045071
3552.1530	0.044516
3554.0166	0.043869
3555.8803	0.043152
3557.7440	0.042564
3559.6076	0.041999
3561.4713	0.041185
3563.3350	0.040708
3565.1986	0.040217
3567.0623	0.039598
3568.9260	0.038771
3570.7896	0.038277
3572.6533	0.037709
3574.5170	0.036988
3576.3807	0.036050
3578.2443	0.035384
3580.1080	0.034939
3581.9717	0.034670
3583.8353	0.034303
3585.6990	0.033840
3587.5627	0.032952
3589.4263	0.032503
3591.2900	0.032096
3593.1537	0.031517
3595.0173	0.031068
3596.8810	0.030543
3598.7447	0.029778
3600.6084	0.029181
3602.4720	0.028549
3604.3357	0.027957
3606.1994	0.027372
3608.0630	0.026977
3609.9267	0.026543
3611.7904	0.025979
3613.6540	0.025239
3615.5177	0.024840
3617.3814	0.024363
3619.2450	0.023624
3621.1087	0.022682
3622.9724	0.022197
3624.8360	0.021969
3626.6997	0.021634
3628.5634	0.021016
3630.4271	0.020515
3632.2907	0.019920
3634.1544	0.019160
3636.0181	0.018536
3637.8817	0.018047
3639.7454	0.017549
3641.6091	0.017016
3643.4727	0.016428
3645.3364	0.015864
3647.2001	0.015311
3649.0637	0.014751
3650.9274	0.013880
3652.7911	0.013464
3654.6547	0.013251
3656.5184	0.012695
3658.3821	0.011997
3660.2458	0.011354
3662.1094	0.010972
3663.9731	0.010668
3665.8368	0.010431
3667.7004	0.010022
3669.5641	0.009501
3671.4278	0.009312
3673.2914	0.009253
3675.1551	0.008832
3677.0188	0.008416
3678.8824	0.007728
3680.7461	0.007373
3682.6098	0.007501
3684.4735	0.007546
3686.3371	0.007565
3688.2008	0.007325
3690.0645	0.007081
3691.9281	0.006643
3693.7918	0.006321
3695.6555	0.006230
3697.5191	0.006136
3699.3828	0.006226
3701.2465	0.006169
3703.1101	0.005942
3704.9738	0.005784
3706.8375	0.005646
3708.7011	0.005811
3710.5648	0.005965
3712.4285	0.005805
3714.2922	0.005373
3716.1558	0.005076
3718.0195	0.005110
3719.8832	0.005319
3721.7468	0.005221
3723.6105	0.005121
3725.4742	0.005003
3727.3378	0.005021
3729.2015	0.005165
3731.0652	0.005137
3732.9288	0.005231
3734.7925	0.005192
3736.6562	0.004774
3738.5199	0.004438
3740.3835	0.004407
3742.2472	0.004873
3744.1109	0.004594
3745.9745	0.004582
3747.8382	0.004719
3749.7019	0.004827
3751.5655	0.004713
3753.4292	0.004297
3755.2929	0.004329
3757.1565	0.004495
3759.0202	0.004615
3760.8839	0.004462
3762.7475	0.004308
3764.6112	0.004289
3766.4749	0.004644
3768.3386	0.004507
3770.2022	0.004262
3772.0659	0.004191
3773.9296	0.004146
3775.7932	0.004291
3777.6569	0.004370
3779.5206	0.004326
3781.3842	0.004186
3783.2479	0.004061
3785.1116	0.004251
3786.9752	0.004230
3788.8389	0.003918
3790.7026	0.003832
3792.5662	0.003991
3794.4299	0.004160
3796.2936	0.004101
3798.1573	0.004313
3800.0209	0.004224
3801.8846	0.003920
3803.7483	0.003952
3805.6119	0.003846
3807.4756	0.003881
3809.3393	0.003815
3811.2029	0.003787
3813.0666	0.003967
3814.9303	0.003907
3816.7939	0.004169
3818.6576	0.004380
3820.5213	0.004125
3822.3850	0.004185
3824.2486	0.003837
3826.1123	0.003592
3827.9760	0.003685
3829.8396	0.003834
3831.7033	0.004102
3833.5670	0.004162
3835.4306	0.004057
3837.2943	0.004090
3839.1580	0.004108
3841.0216	0.003926
3842.8853	0.003583
3844.7490	0.003457
3846.6126	0.003465
3848.4763	0.003680
3850.3400	0.004108
3852.2037	0.004463
3854.0673	0.004324
3855.9310	0.003793
3857.7947	0.003367
3859.6583	0.003466
3861.5220	0.003732
3863.3857	0.003928
3865.2493	0.003817
3867.1130	0.003783
3868.9767	0.003786
3870.8403	0.004115
3872.7040	0.003981
3874.5677	0.003801
3876.4314	0.003842
3878.2950	0.003739
3880.1587	0.003820
3882.0224	0.003967
3883.8860	0.003821
3885.7497	0.003703
3887.6134	0.003785
3889.4770	0.003691
3891.3407	0.003665
3893.2044	0.003708
3895.0680	0.003800
3896.9317	0.003966
3898.7954	0.004187
3900.6590	0.004212
3902.5227	0.004011
3904.3864	0.003912
3906.2501	0.003793
3908.1137	0.003658
3909.9774	0.003670
3911.8411	0.003819
3913.7047	0.004036
3915.5684	0.004123
3917.4321	0.004052
3919.2957	0.003743
3921.1594	0.003599
3923.0231	0.003762
3924.8867	0.004035
3926.7504	0.004102
3928.6141	0.003902
3930.4777	0.003844
3932.3414	0.003870
3934.2051	0.003920
3936.0688	0.003798
3937.9324	0.003804
3939.7961	0.003904
3941.6598	0.003871
3943.5234	0.003868
3945.3871	0.003867
3947.2508	0.003809
3949.1144	0.003806
3950.9781	0.003898
3952.8418	0.003823
3954.7054	0.003809
3956.5691	0.003883
3958.4328	0.003929
3960.2965	0.003965
3962.1601	0.003943
3964.0238	0.003949
3965.8875	0.003864
3967.7511	0.003691
3969.6148	0.003769
3971.4785	0.003947
3973.3421	0.003849
3975.2058	0.003925
3977.0695	0.004065
3978.9331	0.003954
3980.7968	0.003982
3982.6605	0.004010
3984.5241	0.003737
3986.3878	0.003595
3988.2515	0.003690
3990.1152	0.003779
3991.9788	0.003725
3993.8425	0.003701
3995.7062	0.003858
3997.5698	0.003771
3999.4335	0.003558
